Data from 1_15-43-59-491.txt Node
Date: Sun Mar 31 15:43:59 CEST 2019
User: Burggraaff
Spectrometer: 
Trigger mode: 4
Integration Time (sec): 8.110000E-1
Scans to average: 25
Electric dark correction enabled: true
Nonlinearity correction enabled: false
Boxcar width: 0
XAxis mode: Wavelengths
Number of Pixels in Spectrum: 2048
>>>>>Begin Spectral Data<<<<<
178.948	-57.07
179.326	-57.07
179.704	-57.07
180.082	-116.29
180.46	-112.43
180.838	431.12
181.216	-54.61
181.594	-101.79
181.972	-46.28
182.35	-109.81
182.728	-107.34
183.106	90.19
183.484	-94.85
183.861	47.78
184.239	-86.53
184.617	52.1
184.995	-82.21
185.372	-8.96
185.75	-55.69
186.128	-4.65
186.505	590.88
186.883	-28.24
187.261	-32.09
187.638	-22.38
188.016	-18.06
188.393	85.41
188.771	41.15
189.148	33.13
189.525	84.02
189.903	75.69
190.28	106.07
190.658	57.03
191.035	101.14
191.412	136.45
191.789	83.71
192.167	65.52
192.544	55.8
192.921	50.25
193.298	144.62
193.675	72.92
194.052	288.95
194.429	290.65
194.806	104.07
195.183	1186.86
195.56	202.6
195.937	155.72
196.314	168.52
196.691	147.09
197.068	75.38
197.445	185.02
197.822	78.31
198.198	80.01
198.575	231.28
198.952	75.69
199.329	145.08
199.705	89.73
200.082	149.86
200.459	218.64
200.835	85.1
201.212	78.62
201.588	76.77
201.965	230.05
202.341	171.45
202.718	163.43
203.094	211.54
203.47	92.81
203.847	82.17
204.223	61.51
204.599	844.53
204.976	131.2
205.352	162.04
205.728	499.9
206.104	93.43
206.481	137.37
206.857	64.44
207.233	145.85
207.609	71.99
207.985	83.4
208.361	100.52
208.737	71.68
209.113	71.07
209.489	138.91
209.865	300.36
210.241	90.34
210.617	93.12
210.993	420.18
211.368	162.2
211.744	1210.91
212.12	153.26
212.496	261.81
212.871	143.54
213.247	331.97
213.623	230.97
213.998	515.01
214.374	177.77
214.749	506.37
215.125	93.27
215.5	139.99
215.876	76.93
216.251	163.12
216.627	160.04
217.002	157.11
217.377	127.5
217.753	89.42
218.128	77.08
218.503	71.38
218.879	81.86
219.254	72.45
219.629	145.7
220.004	496.04
220.379	160.97
220.754	129.51
221.13	76.93
221.505	162.35
221.88	140.61
222.255	75.38
222.63	141.23
223.004	90.03
223.379	74
223.754	62.89
224.129	203.68
224.504	201.98
224.879	74
225.253	160.97
225.628	82.02
226.003	158.96
226.378	90.5
226.752	93.58
227.127	81.86
227.501	74.61
227.876	603.83
228.251	105.92
228.625	94.35
229	76
229.374	249.01
229.748	288.8
230.123	150.48
230.497	212.47
230.871	313.01
231.246	104.07
231.62	210.31
231.994	520.25
232.369	194.58
232.743	123.8
233.117	87.26
233.491	472.76
233.865	102.22
234.239	176.08
234.613	163.74
234.987	167.75
235.361	222.34
235.735	151.87
236.109	312.24
236.483	101.44
236.857	220.18
237.231	66.44
237.605	56.57
237.978	76.93
238.352	170.99
238.726	102.37
239.099	88.34
239.473	101.14
239.847	84.48
240.22	77.7
240.594	160.66
240.968	88.95
241.341	161.58
241.715	71.38
242.088	86.18
242.461	85.87
242.835	535.52
243.208	833.89
243.582	134.6
243.955	161.27
244.328	224.5
244.701	277.54
245.075	217.4
245.448	85.72
245.821	78.78
246.194	134.29
246.567	90.19
246.94	803.21
247.313	114.4
247.686	90.34
248.059	478.77
248.432	164.82
248.805	119.49
249.178	89.73
249.551	79.55
249.924	82.94
250.297	102.52
250.67	109
251.042	102.83
251.415	95.43
251.788	86.33
252.16	61.2
252.533	80.01
252.906	98.21
253.278	102.22
253.651	92.65
254.023	241.61
254.396	259.04
254.768	94.97
255.141	104.22
255.513	77.85
255.886	56.73
256.258	679.54
256.63	344.93
257.002	232.51
257.375	142.92
257.747	161.43
258.119	228.35
258.491	130.9
258.863	168.21
259.236	193.66
259.608	96.05
259.98	137.99
260.352	109.15
260.724	101.75
261.096	155.88
261.468	92.35
261.839	116.4
262.211	189.18
262.583	165.13
262.955	88.18
263.327	65.82
263.699	156.34
264.07	78.93
264.442	146.62
264.814	195.35
265.185	353.56
265.557	193.19
265.928	107.92
266.3	337.52
266.671	179.47
267.043	175.15
267.414	209.08
267.786	91.88
268.157	196.28
268.529	140.15
268.9	85.56
269.271	149.55
269.642	174.23
270.014	118.41
270.385	92.19
270.756	158.19
271.127	174.84
271.498	177.16
271.869	161.58
272.24	104.68
272.611	216.48
272.982	92.04
273.353	113.01
273.724	54.41
274.095	176.69
274.466	161.89
274.837	108.07
275.208	113.16
275.579	80.78
275.949	108.85
276.32	150.33
276.691	137.37
277.061	514.85
277.432	180.09
277.803	1104.21
278.173	147.4
278.544	155.72
278.914	124.88
279.285	156.96
279.655	246.39
280.026	243.62
280.396	92.19
280.766	103.91
281.137	141.54
281.507	508.38
281.877	106.22
282.247	88.65
282.618	150.33
282.988	204.91
283.358	99.9
283.728	828.96
284.098	254.41
284.468	169.45
284.838	457.8
285.208	152.18
285.578	169.45
285.948	1089.1
286.318	140.15
286.688	82.02
287.058	76.77
287.427	83.71
287.797	172.38
288.167	153.41
288.537	325.81
288.906	131.05
289.276	672.45
289.646	117.48
290.015	100.36
290.385	82.17
290.754	85.1
291.124	96.97
291.493	189.03
291.863	144
292.232	592.57
292.601	217.56
292.971	111.93
293.34	776.69
293.709	223.11
294.078	672.14
294.448	214.47
294.817	229.58
295.186	163.43
295.555	184.56
295.924	243.93
296.293	192.42
296.662	190.42
297.031	176.85
297.4	123.8
297.769	178.7
298.138	175.46
298.507	103.45
298.876	422.03
299.245	129.82
299.613	100.67
299.982	93.27
300.351	268.44
300.719	150.63
301.088	240.53
301.457	122.72
301.825	231.9
302.194	95.28
302.562	100.52
302.931	221.87
303.299	130.74
303.668	674.14
304.036	222.65
304.405	159.58
304.773	154.33
305.141	307.61
305.509	201.37
305.878	170.06
306.246	177
306.614	302.98
306.982	121.34
307.35	267.06
307.718	178.54
308.086	182.55
308.454	125.81
308.822	189.34
309.19	197.82
309.558	110.23
309.926	88.8
310.294	174.38
310.662	119.02
311.03	130.13
311.397	255.95
311.765	297.74
312.133	160.5
312.501	170.22
312.868	181.17
313.236	92.35
313.603	196.89
313.971	86.18
314.338	178.24
314.706	185.64
315.073	288.49
315.441	361.12
315.808	98.51
316.175	175.31
316.543	749.39
316.91	119.79
317.277	171.3
317.645	83.56
318.012	102.68
318.379	95.12
318.746	153.41
319.113	113.16
319.48	83.09
319.847	135.52
320.214	737.37
320.581	275.84
320.948	207.23
321.315	111.78
321.682	329.81
322.049	204.14
322.415	106.69
322.782	102.52
323.149	153.87
323.516	121.64
323.882	99.29
324.249	84.94
324.616	104.53
324.982	151.87
325.349	97.44
325.715	100.98
326.082	96.36
326.448	185.95
326.815	172.68
327.181	177.16
327.547	636.06
327.914	277.69
328.28	188.26
328.646	113.63
329.012	103.76
329.379	166.83
329.745	123.65
330.111	485.71
330.477	118.56
330.843	190.42
331.209	113.78
331.575	152.18
331.941	104.68
332.307	104.53
332.673	114.24
333.039	146.78
333.404	216.94
333.77	107.77
334.136	97.28
334.502	132.59
334.867	76.31
335.233	185.17
335.599	181.63
335.964	164.51
336.33	91.58
336.695	219.56
337.061	333.82
337.426	314.39
337.792	168.21
338.157	119.49
338.523	179.32
338.888	199.05
339.253	118.41
339.618	242.23
339.984	191.96
340.349	97.13
340.714	96.82
341.079	233.29
341.444	101.6
341.809	255.64
342.174	199.05
342.539	122.11
342.904	91.27
343.269	181.47
343.634	185.95
343.999	98.67
344.364	180.55
344.729	107.15
345.094	317.94
345.458	335.52
345.823	182.55
346.188	173.3
346.552	190.11
346.917	127.5
347.282	118.25
347.646	121.18
348.011	592.57
348.375	142
348.74	111.31
349.104	192.88
349.468	118.87
349.833	228.35
350.197	141.54
350.561	127.97
350.926	115.32
351.29	184.56
351.654	202.91
352.018	138.76
352.382	123.49
352.746	183.94
353.11	218.79
353.474	263.66
353.838	188.88
354.202	148.32
354.566	169.91
354.93	136.45
355.294	101.44
355.658	117.79
356.021	207.53
356.385	111.93
356.749	191.81
357.113	269.52
357.476	197.51
357.84	209.69
358.203	216.17
358.567	135.37
358.93	146.47
359.294	109.46
359.657	161.89
360.021	152.02
360.384	127.04
360.747	143.85
361.111	151.87
361.474	298.2
361.837	147.86
362.201	152.48
362.564	167.13
362.927	238.99
363.29	239.76
363.653	153.72
364.016	167.13
364.379	236.52
364.742	245.16
365.105	303.75
365.468	183.32
365.831	289.88
366.194	238.22
366.556	799.51
366.919	222.18
367.282	261.97
367.645	324.11
368.007	184.25
368.37	270.91
368.732	236.68
369.095	214.47
369.458	319.95
369.82	191.03
370.182	257.65
370.545	211.85
370.907	284.79
371.27	283.4
371.632	223.42
371.994	288.64
372.357	1001.05
372.719	236.37
373.081	224.34
373.443	325.5
373.805	311.93
374.167	285.87
374.529	383.78
374.891	407.22
375.253	297.59
375.615	564.97
375.977	283.25
376.339	365.28
376.701	321.95
377.063	279.24
377.424	277.85
377.786	290.65
378.148	541.38
378.51	315.47
378.871	318.87
379.233	396.74
379.594	328.27
379.956	352.17
380.317	422.49
380.679	404.76
381.04	370.52
381.402	512.39
381.763	507.14
382.124	379.47
382.486	456.57
382.847	517.48
383.208	480.01
383.569	402.6
383.931	521.64
384.292	418.17
384.653	590.41
385.014	444.23
385.375	435.13
385.736	462.73
386.097	452.56
386.458	488.02
386.819	1290.94
387.179	664.27
387.54	565.28
387.901	540.14
388.262	581.16
388.622	564.2
388.983	670.44
389.344	521.95
389.704	542.92
390.065	541.99
390.425	563.43
390.786	611.54
391.146	570.37
391.507	582.55
391.867	866.43
392.228	639.45
392.588	606.3
392.948	612.15
393.308	629.58
393.669	740.14
394.029	1219.24
394.389	706.22
394.749	680.16
395.109	761.42
395.469	678.77
395.829	887.71
396.189	739.52
396.549	712.23
396.909	826.03
397.269	851.78
397.629	774.37
397.988	857.18
398.348	797.35
398.708	893.11
399.068	976.53
399.427	948.46
399.787	960.49
400.146	875.07
400.506	958.64
400.866	1023.25
401.225	898.04
401.584	916.08
401.944	963.11
402.303	1007.37
402.663	964.96
403.022	980.69
403.381	1201.04
403.74	1010.61
404.1	1018.32
404.459	1121.94
404.818	1291.71
405.177	1163.57
405.536	1188.4
405.895	1400.43
406.254	1164.81
406.613	1163.11
406.972	1159.56
407.331	1224.48
407.69	1338.44
408.048	1228.8
408.407	1315.46
408.766	1368.66
409.125	1717.31
409.483	1505.74
409.842	1833.88
410.2	1665.34
410.559	1437.12
410.918	1331.04
411.276	1401.2
411.634	1528.72
411.993	2126.55
412.351	1686.16
412.71	1446.22
413.068	1450.69
413.426	1590.4
413.784	1512.22
414.143	1523.01
414.501	1577.91
414.859	1679.37
415.217	1752.46
415.575	1626.79
415.933	1670.89
416.291	1694.33
416.649	1748.15
417.007	1670.89
417.365	1951.23
417.723	1966.49
418.08	1852.39
418.438	1785.77
418.796	2356.77
419.154	1915.76
419.511	1749.07
419.869	1830.33
420.227	2824
420.584	1969.42
420.942	1953.23
421.299	2524.39
421.657	2023.39
422.014	2195.79
422.371	2161.71
422.729	2065.18
423.086	2089.08
423.443	2147.22
423.8	2191.32
424.158	2208.74
424.515	2299.57
424.872	2231.25
425.229	3147.05
425.586	2470.73
425.943	2508.2
426.3	2348.6
426.657	2236.81
427.014	2433.1
427.371	2321.46
427.728	2427.4
428.084	2451.76
428.441	2751.06
428.798	2432.64
429.155	2563.09
429.511	2553.84
429.868	2765.56
430.224	2782.52
430.581	2689.54
430.937	2786.22
431.294	2916.52
431.65	2916.83
432.007	2908.04
432.363	2689.69
432.719	2912.97
433.076	2949.98
433.432	2898.63
433.788	2917.44
434.144	3186.06
434.5	3052.52
434.857	3143.19
435.213	3140.11
435.569	3447.43
435.925	4013.34
436.281	3269.95
436.636	3429.85
436.992	3484.9
437.348	3335.33
437.704	3489.37
438.06	3425.53
438.416	3475.19
438.771	3671.48
439.127	3751.51
439.483	3449.13
439.838	3448.36
440.194	3624.45
440.549	3715.58
440.905	3679.66
441.26	4002.86
441.615	3988.36
441.971	3990.37
442.326	3894.76
442.681	3912.96
443.037	4100.16
443.392	4121.44
443.747	3730.39
444.102	3610.73
444.457	3914.04
444.812	4165.39
445.167	4145.8
445.522	3835.55
445.877	3898.93
446.232	4112.65
446.587	4311.1
446.942	4269.47
447.297	4022.29
447.652	4343.33
448.006	4211.95
448.361	4548.57
448.716	4245.11
449.07	4417.5
449.425	4464.22
449.78	4608.71
450.134	4596.07
450.489	4506.01
450.843	4308.17
451.197	4740.24
451.552	5371.23
451.906	4657.13
452.26	4813.49
452.615	4792.67
452.969	4615.03
453.323	4613.64
453.677	5177.86
454.031	5493.51
454.385	5844.47
454.739	5504.77
455.093	5275.01
455.447	5005.62
455.801	5566.29
456.155	5694.9
456.509	5845.55
456.863	5231.06
457.217	5786.8
457.57	5630.9
457.924	5630.13
458.278	5675.16
458.631	5397.6
458.985	5504.46
459.338	5493.66
459.692	5728.66
460.045	6186.79
460.399	6041.07
460.752	5970.76
461.105	6083.79
461.459	5745.32
461.812	5957.19
462.165	6368.75
462.519	6425.19
462.872	6612.54
463.225	6675.3
463.578	6512.93
463.931	6730.35
464.284	6663.58
464.637	6757.33
464.99	6980.31
465.343	6907.37
465.696	7184
466.048	6878.53
466.401	7248.46
466.754	7486.54
467.107	7398.03
467.459	7055.25
467.812	7679.6
468.165	7612.06
468.517	7973.2
468.87	8383.99
469.222	8074.97
469.575	8629.17
469.927	8499.48
470.279	8743.27
470.632	8641.81
470.984	9141.27
471.336	8643.04
471.689	8987.37
472.041	9150.36
472.393	9380.28
472.745	9881.12
473.097	9845.5
473.449	9812.65
473.801	10005.71
474.153	10372.4
474.505	10474.79
474.857	10010.64
475.209	11142.16
475.56	10855.04
475.912	10970.85
476.264	11060.75
476.616	11262.59
476.967	11462.9
477.319	11762.51
477.67	12300.05
478.022	12199.51
478.373	12582.7
478.725	12584.55
479.076	12410.46
479.428	12412
479.779	12710.07
480.13	13245.45
480.482	13563.57
480.833	13829.87
481.184	13941.05
481.535	13936.89
481.886	15123.61
482.237	14296.94
482.588	14427.09
482.939	14650.21
483.29	15058.38
483.641	15084.44
483.992	16055.28
484.343	15969.24
484.694	16071.78
485.045	16028.76
485.395	16535.62
485.746	16309.56
486.097	16936.23
486.447	17037.38
486.798	17334.68
487.148	17571.84
487.499	17453.72
487.849	18018.4
488.2	18316.01
488.55	18192.03
488.9	18202.83
489.251	18499.82
489.601	18341.92
489.951	18723.87
490.301	18738.83
490.652	18987.24
491.002	19187.55
491.352	19363.65
491.702	19203.12
492.052	19472.67
492.402	19867.73
492.752	20088.54
493.101	20131.56
493.451	20070.65
493.801	20752.06
494.151	20786.91
494.501	20598.79
494.85	20649.37
495.2	20696.4
495.549	20853.06
495.899	21056.76
496.249	21372.72
496.598	21773.64
496.948	22088.82
497.297	21982.42
497.646	21987.82
497.996	22272.32
498.345	22107.48
498.694	21909.8
499.043	21843.64
499.393	22024.06
499.742	21937.4
500.091	22012.65
500.44	22247.49
500.789	22383.34
501.138	22388.74
501.487	23061.21
501.836	22922.12
502.184	22784.88
502.533	23011.56
502.882	22793.52
503.231	23220.96
503.58	23341.85
503.928	23180.87
504.277	23514.25
504.625	23674.15
504.974	24170.52
505.322	24351.71
505.671	24022.03
506.019	23855.95
506.368	24015.4
506.716	23986.1
507.064	24574.37
507.413	24703.75
507.761	24947.07
508.109	25005.52
508.457	24912.69
508.805	25473.51
509.153	25561.1
509.501	25748.76
509.849	25114.69
510.197	25214.76
510.545	25789.62
510.893	25930.41
511.241	26292.93
511.589	26525.46
511.936	26239.89
512.284	26842.35
512.632	26687.22
512.979	26536.88
513.327	26880.74
513.675	27274.11
514.022	27067.94
514.37	27332.08
514.717	27153.21
515.064	27541.18
515.412	27593.3
515.759	27976.49
516.106	28198.38
516.454	28231.07
516.801	29011.48
517.148	29056.5
517.495	29231.06
517.842	29230.29
518.189	29911.85
518.536	30204.52
518.883	29724.96
519.23	29561.82
519.577	30039.07
519.924	30086.41
520.271	30335.75
520.617	30753.63
520.964	30884.08
521.311	30657.41
521.657	30461.11
522.004	30689.33
522.35	30848.15
522.697	30883.16
523.043	31447.68
523.39	31687.77
523.736	32062.02
524.083	32594.16
524.429	32400.95
524.775	32880.97
525.121	32822.38
525.468	32610.35
525.814	33031.93
526.16	33453.52
526.506	33569.47
526.852	33208.34
527.198	34132.15
527.544	34106.86
527.89	33774.41
528.236	33930.3
528.582	34071.86
528.927	33615.73
529.273	34162.99
529.619	34039.48
529.965	33688.52
530.31	33862.15
530.656	34569.46
531.001	34408.32
531.347	34414.95
531.692	34296.84
532.038	34669.08
532.383	34797.22
532.728	34643.79
533.074	34510.4
533.419	34208.33
533.764	34132.61
534.109	34690.51
534.455	34744.02
534.8	35333.83
535.145	35234.22
535.49	35055.96
535.835	35266.6
536.18	35259.82
536.525	35500.68
536.869	35418.95
537.214	35665.98
537.559	36050.24
537.904	35846.7
538.248	36207.37
538.593	36203.67
538.938	36199.82
539.282	36253.79
539.627	36439.75
539.971	36203.21
540.316	36879.22
540.66	36739.67
541.005	38018.14
541.349	37419.39
541.693	37100.19
542.037	37609.82
542.382	37267.04
542.726	37702.5
543.07	37788.7
543.414	37437.27
543.758	37785.3
544.102	38907.42
544.446	38490.77
544.79	38991.92
545.134	38823.99
545.478	38413.36
545.821	38237.73
546.165	38295.24
546.509	38568.95
546.853	38726.39
547.196	38845.58
547.54	39022.14
547.883	39020.44
548.227	39092.46
548.57	38361.39
548.914	38462.86
549.257	38821.53
549.601	39303.09
549.944	38800.4
550.287	38727
550.63	38549.67
550.973	38846.97
551.317	39758.29
551.66	39323.45
552.003	38936.87
552.346	39270.71
552.689	39124.84
553.032	39553.82
553.375	40206.71
553.717	40254.66
554.06	40211.79
554.403	40027.68
554.746	40038.63
555.088	40074.71
555.431	39863.92
555.774	40313.57
556.116	40906.16
556.459	41000.37
556.801	41734.36
557.144	40974.16
557.486	41125.89
557.828	41278.55
558.171	40526.21
558.513	40103.24
558.855	40827.98
559.197	40706.01
559.54	41020.42
559.882	41665.28
560.224	41455.11
560.566	40952.26
560.908	40374.78
561.25	40494.13
561.592	40460.21
561.933	41193.59
562.275	41419.95
562.617	40946.87
562.959	41262.2
563.3	40223.2
563.642	40791.12
563.984	41294.28
564.325	41779.55
564.667	41920.02
565.008	42069.75
565.35	42014.39
565.691	42373.52
566.032	41771.84
566.374	41300.91
566.715	41445.7
567.056	41223.19
567.397	41444.47
567.739	42089.02
568.08	41886.25
568.421	42182.32
568.762	41032.75
569.103	41600.83
569.444	41982.94
569.784	41441.38
570.125	41940.53
570.466	41588.95
570.807	41917.71
571.148	42583.54
571.488	42381.39
571.829	42223.02
572.17	42095.04
572.51	41730.05
572.851	42826.87
573.191	42486.86
573.532	42711.68
573.872	43043.52
574.212	42676.84
574.553	42685.32
574.893	43017.93
575.233	43047.69
575.573	42833.5
575.913	43025.94
576.253	42471.29
576.593	42369.98
576.933	42307.99
577.273	42837.82
577.613	43034.12
577.953	43331.26
578.293	43625.01
578.633	42959.48
578.973	43715.37
579.312	43472.2
579.652	43511.37
579.992	44007.89
580.331	43549.61
580.671	43211.14
581.01	43467.73
581.35	43310.6
581.689	44009.59
582.028	44160.39
582.368	45277.26
582.707	44506.88
583.046	44392.77
583.385	44253.38
583.725	44530.32
584.064	44407.11
584.403	43629.02
584.742	44708.88
585.081	44410.97
585.42	44852.44
585.759	45189.22
586.098	45602.93
586.436	44624.54
586.775	44357.92
587.114	44603.41
587.453	45111.81
587.791	45006.95
588.13	45435.78
588.468	46292.67
588.807	45708.72
589.145	46041.94
589.484	45506.41
589.822	46022.82
590.161	46102.23
590.499	45281.12
590.837	44549.75
591.175	45121.21
591.513	45335.24
591.852	45313.81
592.19	44855.37
592.528	45390.45
592.866	45975.02
593.204	46569.92
593.542	46102.39
593.879	46022.82
594.217	45999.38
594.555	46532.91
594.893	46758.05
595.231	46747.56
595.568	47170.07
595.906	45868.78
596.243	45755.44
596.581	46053.04
596.918	46926.12
597.256	46624.66
597.593	46745.09
597.931	46919.8
598.268	47415.09
598.605	47718.56
598.942	47442.39
599.28	46795.52
599.617	45981.65
599.954	45590.91
600.291	46370.54
600.628	46544.63
600.965	46498.68
601.302	47910.38
601.639	46674.47
601.975	47347.71
602.312	47348.02
602.649	47185.49
602.986	47245.94
603.322	46746.79
603.659	45783.66
603.996	46056.59
604.332	46717.34
604.669	47621.26
605.005	47218.8
605.341	46914.87
